E	j	j C	j C	j  Ageo
V RHE	mA cm-2	mA mF-1	mA mF-1	mA cm-2
ML_074		I norm by capacitance @ 1.2 VRHE	I norm by capacitance @ 0.5 VRHE	I norm by Ageo
1.2003	0.00962	0.8639	1.39425	0.45828
1.20064	0.00514	0.46182	0.74534	0.24498
1.20112	0.00354	0.31779	0.51288	0.16858
1.20161	0.00267	0.23967	0.38681	0.12714
1.20211	0.00209	0.18724	0.30219	0.09933
1.20261	0.00173	0.15497	0.2501	0.08221
1.2031	0.00148	0.13249	0.21383	0.07028
1.2036	0.00117	0.10463	0.16886	0.0555
1.20411	9.25E-04	0.083	0.13396	0.04403
1.20461	8.29E-04	0.07445	0.12015	0.03949
1.2051	7.04E-04	0.06316	0.10193	0.0335
1.2056	5.93E-04	0.05324	0.08593	0.02824
1.20609	5.88E-04	0.05279	0.0852	0.02801
1.20659	4.82E-04	0.04329	0.06986	0.02296
1.20709	3.62E-04	0.03249	0.05244	0.01724
1.20759	3.70E-04	0.03321	0.05359	0.01762
1.20809	2.90E-04	0.02607	0.04207	0.01383
1.20858	1.79E-04	0.01608	0.02595	0.00853
1.20909	1.67E-04	0.01498	0.02418	0.00795
1.20958	1.87E-04	0.01683	0.02716	0.00893
1.21008	1.08E-04	0.00972	0.01569	0.00516
1.21058	8.85E-05	0.00794	0.01282	0.00421
1.21108	9.91E-05	0.00889	0.01435	0.00472
1.21158	6.42E-05	0.00576	0.00929	0.00305
1.21212	6.14E-05	0.00551	0.0089	0.00292
1.21263	8.38E-05	0.00752	0.01213	0.00399
1.21313	4.18E-05	0.00375	0.00605	0.00199
1.21363	4.15E-05	0.00373	0.00601	0.00198
1.21413	5.17E-05	0.00464	0.00749	0.00246
1.21463	1.20E-05	0.00108	0.00174	5.73E-04
1.21513	1.66E-06	1.49E-04	2.41E-04	7.91E-05
1.21563	3.05E-05	0.00274	0.00442	0.00145
1.21612	-9.21E-06	-8.27E-04	-0.00133	-4.39E-04
1.21662	-3.88E-05	-0.00348	-0.00562	-0.00185
1.21712	4.80E-06	4.30E-04	6.95E-04	2.28E-04
1.21762	2.26E-05	0.00203	0.00327	0.00107
1.21811	-4.57E-05	-0.0041	-0.00661	-0.00217
1.21862	-5.28E-05	-0.00474	-0.00765	-0.00251
1.21911	-2.15E-05	-0.00193	-0.00312	-0.00102
1.21962	-7.60E-05	-0.00683	-0.01102	-0.00362
1.22011	-6.14E-05	-0.00551	-0.00889	-0.00292
1.22061	-2.49E-05	-0.00223	-0.0036	-0.00118
1.22111	-5.26E-05	-0.00472	-0.00762	-0.0025
1.22161	-4.52E-05	-0.00406	-0.00655	-0.00215
1.22211	-2.46E-05	-0.00221	-0.00357	-0.00117
1.2226	-6.23E-05	-0.0056	-0.00903	-0.00297
1.22311	-6.67E-05	-0.00599	-0.00967	-0.00318
1.2236	-3.47E-05	-0.00311	-0.00502	-0.00165
1.22409	-4.57E-05	-0.0041	-0.00661	-0.00217
1.2246	-8.99E-05	-0.00807	-0.01303	-0.00428
1.2251	-4.70E-05	-0.00422	-0.00681	-0.00224
1.2256	1.36E-05	0.00122	0.00197	6.46E-04
1.22609	-6.51E-06	-5.84E-04	-9.43E-04	-3.10E-04
1.22659	-2.81E-06	-2.52E-04	-4.07E-04	-1.34E-04
1.22711	-3.40E-05	-0.00305	-0.00493	-0.00162
1.22761	-7.61E-05	-0.00683	-0.01103	-0.00363
1.2281	-6.04E-05	-0.00542	-0.00875	-0.00288
1.22861	-4.86E-05	-0.00436	-0.00704	-0.00232
1.2291	-8.29E-05	-0.00744	-0.01201	-0.00395
1.2296	-5.76E-05	-0.00517	-0.00834	-0.00274
1.2301	-3.27E-05	-0.00293	-0.00474	-0.00156
1.23059	-8.96E-05	-0.00804	-0.01298	-0.00427
1.23108	-9.84E-05	-0.00883	-0.01426	-0.00469
1.23159	-5.06E-05	-0.00454	-0.00733	-0.00241
1.23209	-8.50E-05	-0.00763	-0.01231	-0.00405
1.23258	-1.12E-04	-0.01006	-0.01623	-0.00534
1.23308	-7.76E-05	-0.00697	-0.01124	-0.0037
1.23359	-6.69E-05	-0.006	-0.00969	-0.00318
1.23408	-8.04E-05	-0.00722	-0.01165	-0.00383
1.23459	-5.59E-05	-0.00501	-0.00809	-0.00266
1.23509	-4.27E-05	-0.00383	-0.00618	-0.00203
1.23559	-6.35E-05	-0.0057	-0.0092	-0.00302
1.23608	-6.02E-05	-0.0054	-0.00872	-0.00286
1.23659	-4.52E-05	-0.00406	-0.00655	-0.00215
1.23708	-6.12E-05	-0.00549	-0.00887	-0.00291
1.23762	-4.97E-05	-0.00446	-0.00719	-0.00236
1.23813	-3.99E-05	-0.00358	-0.00578	-0.0019
1.23863	-7.55E-05	-0.00678	-0.01094	-0.0036
1.23913	-7.58E-05	-0.0068	-0.01098	-0.00361
1.23963	-5.73E-05	-0.00514	-0.0083	-0.00273
1.24012	-5.79E-05	-0.00519	-0.00838	-0.00276
1.24062	-8.23E-05	-0.00739	-0.01193	-0.00392
1.24112	-4.08E-05	-0.00366	-0.0059	-0.00194
1.24163	-3.66E-05	-0.00328	-0.0053	-0.00174
1.24212	-7.88E-05	-0.00707	-0.01142	-0.00375
1.24262	-5.76E-05	-0.00517	-0.00834	-0.00274
1.24312	-4.72E-05	-0.00423	-0.00683	-0.00225
1.24362	-7.13E-05	-0.0064	-0.01033	-0.0034
1.24411	-5.98E-05	-0.00537	-0.00866	-0.00285
1.24461	-3.51E-05	-0.00315	-0.00508	-0.00167
1.24511	-6.52E-05	-0.00585	-0.00945	-0.0031
1.24561	-7.10E-05	-0.00638	-0.01029	-0.00338
1.2461	-5.40E-05	-0.00485	-0.00782	-0.00257
1.24661	-6.96E-05	-0.00625	-0.01008	-0.00331
1.24711	-6.56E-05	-0.00589	-0.00951	-0.00313
1.2476	-4.30E-05	-0.00386	-0.00623	-0.00205
1.2481	-6.15E-05	-0.00552	-0.0089	-0.00293
1.24861	-8.39E-05	-0.00753	-0.01216	-0.004
1.2491	-3.52E-05	-0.00316	-0.00509	-0.00167
1.2496	-3.72E-05	-0.00334	-0.00538	-0.00177
1.2501	-7.12E-05	-0.00639	-0.01032	-0.00339
1.2506	-5.52E-05	-0.00495	-0.008	-0.00263
1.25111	-3.90E-05	-0.0035	-0.00565	-0.00186
1.2516	-3.49E-05	-0.00313	-0.00506	-0.00166
1.2521	-4.74E-05	-0.00425	-0.00687	-0.00226
1.25261	-2.99E-05	-0.00269	-0.00433	-0.00142
1.2531	-4.28E-05	-0.00384	-0.0062	-0.00204
1.2536	-7.79E-05	-0.00699	-0.01129	-0.00371
1.2541	-6.09E-05	-0.00546	-0.00882	-0.0029
1.25459	-8.11E-05	-0.00728	-0.01175	-0.00386
1.25509	-8.11E-05	-0.00728	-0.01175	-0.00386
1.2556	-3.98E-05	-0.00357	-0.00577	-0.0019
1.25609	-6.91E-05	-0.0062	-0.01001	-0.00329
1.25658	-1.19E-04	-0.01064	-0.01718	-0.00565
1.25709	-7.49E-05	-0.00672	-0.01085	-0.00357
1.25759	-8.83E-05	-0.00793	-0.01279	-0.00421
1.25808	-1.05E-04	-0.00945	-0.01525	-0.00501
1.25858	-8.28E-05	-0.00744	-0.012	-0.00394
1.25908	-5.26E-05	-0.00472	-0.00761	-0.0025
1.25958	-9.52E-05	-0.00855	-0.01379	-0.00453
1.26008	-8.37E-05	-0.00751	-0.01212	-0.00398
1.26058	-7.05E-05	-0.00633	-0.01021	-0.00336
1.26108	-8.54E-05	-0.00766	-0.01237	-0.00407
1.26158	-6.55E-05	-0.00588	-0.00949	-0.00312
1.26207	-4.37E-05	-0.00392	-0.00633	-0.00208
1.26257	-8.36E-05	-0.00751	-0.01212	-0.00398
1.26307	-9.06E-05	-0.00813	-0.01313	-0.00431
1.26358	-4.85E-05	-0.00436	-0.00703	-0.00231
1.26408	-4.61E-05	-0.00414	-0.00668	-0.00219
1.26459	-6.27E-05	-0.00563	-0.00908	-0.00299
1.26509	-4.26E-05	-0.00382	-0.00617	-0.00203
1.26558	-4.01E-05	-0.0036	-0.00581	-0.00191
1.26608	-8.23E-05	-0.00739	-0.01192	-0.00392
1.26658	-6.11E-05	-0.00548	-0.00885	-0.00291
1.26709	-2.75E-05	-0.00247	-0.00399	-0.00131
1.26758	-5.45E-05	-0.00489	-0.0079	-0.0026
1.26808	-3.87E-05	-0.00347	-0.0056	-0.00184
1.26858	-4.56E-05	-0.00409	-0.0066	-0.00217
1.26908	-5.71E-05	-0.00512	-0.00827	-0.00272
1.26958	-6.12E-05	-0.00549	-0.00887	-0.00291
1.27007	-4.67E-05	-0.00419	-0.00677	-0.00222
1.27057	-7.13E-05	-0.0064	-0.01033	-0.0034
1.27107	-8.53E-05	-0.00766	-0.01236	-0.00406
1.27157	-3.66E-05	-0.00328	-0.0053	-0.00174
1.27207	-3.84E-05	-0.00344	-0.00556	-0.00183
1.27257	-7.43E-05	-0.00667	-0.01076	-0.00354
1.27307	-5.91E-05	-0.0053	-0.00856	-0.00281
1.27356	-2.89E-05	-0.0026	-0.00419	-0.00138
1.27406	-7.31E-05	-0.00656	-0.0106	-0.00348
1.27456	-4.70E-05	-0.00422	-0.00681	-0.00224
1.27506	-3.86E-05	-0.00346	-0.00559	-0.00184
1.27556	-5.96E-05	-0.00535	-0.00863	-0.00284
1.27607	-6.07E-05	-0.00545	-0.0088	-0.00289
1.27658	-4.83E-05	-0.00433	-0.007	-0.0023
1.27706	-4.86E-05	-0.00436	-0.00703	-0.00231
1.27756	-9.04E-06	-8.12E-04	-0.00131	-4.31E-04
1.27806	-4.98E-06	-4.47E-04	-7.21E-04	-2.37E-04
1.27856	-1.15E-05	-0.00103	-0.00167	-5.48E-04
1.27906	-5.28E-05	-0.00474	-0.00765	-0.00251
1.27957	-2.81E-05	-0.00252	-0.00407	-0.00134
1.28006	-4.49E-05	-0.00403	-0.0065	-0.00214
1.28055	-8.20E-05	-0.00736	-0.01188	-0.0039
1.28106	-5.31E-05	-0.00477	-0.0077	-0.00253
1.28156	-3.45E-05	-0.0031	-0.005	-0.00164
1.28205	-1.07E-04	-0.0096	-0.01549	-0.00509
1.28255	-8.86E-05	-0.00795	-0.01284	-0.00422
1.28305	-1.10E-04	-0.00991	-0.016	-0.00526
1.28355	-1.28E-04	-0.0115	-0.01857	-0.0061
1.28404	-1.01E-04	-0.00905	-0.0146	-0.0048
1.28455	-8.64E-05	-0.00775	-0.01251	-0.00411
1.28505	-1.08E-04	-0.0097	-0.01566	-0.00515
1.28555	-1.14E-04	-0.01022	-0.01649	-0.00542
1.28605	-7.07E-05	-0.00634	-0.01024	-0.00337
1.28655	-8.70E-05	-0.00781	-0.0126	-0.00414
1.28704	-8.86E-05	-0.00796	-0.01284	-0.00422
1.28754	-7.68E-05	-0.00689	-0.01112	-0.00366
1.28804	-8.67E-05	-0.00778	-0.01256	-0.00413
1.28854	-1.15E-04	-0.01031	-0.01663	-0.00547
1.28908	-8.07E-05	-0.00724	-0.01169	-0.00384
1.28958	-6.44E-05	-0.00578	-0.00933	-0.00307
1.29009	-8.11E-05	-0.00728	-0.01175	-0.00386
1.29059	-5.94E-05	-0.00533	-0.00861	-0.00283
1.29109	-4.31E-05	-0.00387	-0.00624	-0.00205
1.29159	-5.97E-05	-0.00536	-0.00865	-0.00284
1.29209	-5.65E-05	-0.00507	-0.00819	-0.00269
1.29259	-1.92E-05	-0.00172	-0.00278	-9.15E-04
1.29308	-5.54E-05	-0.00498	-0.00803	-0.00264
1.29358	-4.22E-05	-0.00379	-0.00611	-0.00201
1.29408	-2.69E-05	-0.00241	-0.00389	-0.00128
1.29457	-5.30E-05	-0.00476	-0.00768	-0.00253
1.29507	-8.02E-05	-0.0072	-0.01161	-0.00382
1.29557	-5.71E-05	-0.00513	-0.00828	-0.00272
1.29607	-4.77E-05	-0.00428	-0.0069	-0.00227
1.29657	-7.00E-05	-0.00629	-0.01015	-0.00333
1.29706	-4.45E-05	-0.00399	-0.00645	-0.00212
1.29756	-1.41E-05	-0.00127	-0.00205	-6.74E-04
1.29806	-6.88E-05	-0.00618	-0.00997	-0.00328
1.29856	-5.69E-05	-0.00511	-0.00825	-0.00271
1.29906	-1.67E-05	-0.0015	-0.00242	-7.96E-04
1.29955	-5.79E-05	-0.00519	-0.00838	-0.00276
1.30005	-4.95E-05	-0.00444	-0.00717	-0.00236
1.30055	-3.79E-05	-0.0034	-0.00548	-0.0018
1.30105	-4.95E-05	-0.00444	-0.00717	-0.00236
1.30156	-4.40E-05	-0.00395	-0.00637	-0.00209
1.30206	-4.36E-05	-0.00391	-0.00632	-0.00208
1.30255	-3.29E-05	-0.00296	-0.00477	-0.00157
1.30304	-2.84E-05	-0.00254	-0.00411	-0.00135
1.30355	-1.52E-05	-0.00137	-0.00221	-7.26E-04
1.30406	-2.23E-05	-0.002	-0.00323	-0.00106
1.30456	-1.98E-05	-0.00178	-0.00288	-9.45E-04
1.30506	-1.09E-05	-9.79E-04	-0.00158	-5.20E-04
1.30556	8.26E-06	7.42E-04	0.0012	3.93E-04
1.30606	-2.97E-05	-0.00267	-0.00431	-0.00142
1.30656	-1.27E-05	-0.00114	-0.00185	-6.07E-04
1.30706	-6.18E-06	-5.54E-04	-8.95E-04	-2.94E-04
1.30756	-3.55E-05	-0.00318	-0.00514	-0.00169
1.30805	-4.10E-05	-0.00368	-0.00594	-0.00195
1.30856	-3.38E-05	-0.00304	-0.0049	-0.00161
1.30905	-8.99E-05	-0.00807	-0.01303	-0.00428
1.30955	-7.83E-05	-0.00703	-0.01134	-0.00373
1.31005	-6.30E-05	-0.00565	-0.00913	-0.003
1.31054	-8.91E-05	-0.008	-0.0129	-0.00424
1.31104	-1.10E-04	-0.00988	-0.01594	-0.00524
1.31154	-7.33E-05	-0.00658	-0.01062	-0.00349
1.31204	-4.40E-05	-0.00395	-0.00638	-0.0021
1.31254	-7.63E-05	-0.00685	-0.01105	-0.00363
1.31304	-5.84E-05	-0.00524	-0.00846	-0.00278
1.31354	-3.64E-05	-0.00327	-0.00528	-0.00173
1.31403	-9.10E-05	-0.00817	-0.01319	-0.00434
1.31457	-6.31E-05	-0.00566	-0.00914	-0.003
1.31508	-3.62E-05	-0.00325	-0.00525	-0.00172
1.31558	-5.07E-05	-0.00455	-0.00735	-0.00242
1.31608	-2.23E-05	-0.002	-0.00323	-0.00106
1.31658	-6.68E-06	-5.99E-04	-9.67E-04	-3.18E-04
1.31708	-5.88E-05	-0.00527	-0.00851	-0.0028
1.31758	-5.62E-05	-0.00505	-0.00815	-0.00268
1.31808	-4.83E-05	-0.00433	-0.00699	-0.0023
1.31858	-6.95E-05	-0.00624	-0.01006	-0.00331
1.31908	-8.70E-05	-0.00781	-0.01261	-0.00414
1.31957	-6.01E-05	-0.00539	-0.0087	-0.00286
1.32007	-4.93E-05	-0.00442	-0.00714	-0.00235
1.32057	-7.95E-05	-0.00714	-0.01152	-0.00379
1.32107	-5.89E-05	-0.00528	-0.00853	-0.0028
1.32157	-6.27E-05	-0.00563	-0.00908	-0.00298
1.32207	-7.77E-05	-0.00698	-0.01126	-0.0037
1.32257	-6.69E-05	-0.006	-0.00969	-0.00318
1.32307	-2.95E-05	-0.00265	-0.00428	-0.00141
1.32357	-7.35E-05	-0.0066	-0.01065	-0.0035
1.32406	-7.04E-05	-0.00632	-0.01019	-0.00335
1.32456	-5.28E-05	-0.00474	-0.00765	-0.00251
1.32506	-7.39E-05	-0.00663	-0.01071	-0.00352
1.32556	-7.17E-05	-0.00643	-0.01038	-0.00341
1.32605	-5.65E-05	-0.00507	-0.00818	-0.00269
1.32655	-6.78E-05	-0.00608	-0.00982	-0.00323
1.32706	-7.40E-05	-0.00664	-0.01072	-0.00352
1.32756	-4.20E-05	-0.00377	-0.00608	-0.002
1.32806	-3.04E-06	-2.73E-04	-4.41E-04	-1.45E-04
1.32855	-4.10E-05	-0.00368	-0.00594	-0.00195
1.32905	-2.87E-05	-0.00257	-0.00415	-0.00136
1.32956	-4.31E-05	-0.00387	-0.00624	-0.00205
1.33006	-9.61E-05	-0.00862	-0.01392	-0.00458
1.33056	-7.01E-05	-0.00629	-0.01015	-0.00334
1.33107	-5.24E-05	-0.0047	-0.00759	-0.00249
1.33156	-7.48E-05	-0.00672	-0.01084	-0.00356
1.33206	-4.74E-05	-0.00426	-0.00687	-0.00226
1.33256	-4.50E-05	-0.00404	-0.00652	-0.00214
1.33305	-7.50E-05	-0.00674	-0.01087	-0.00357
1.33355	-7.77E-05	-0.00698	-0.01126	-0.0037
1.33405	-4.39E-05	-0.00394	-0.00635	-0.00209
1.33455	-5.94E-05	-0.00533	-0.0086	-0.00283
1.33504	-7.44E-05	-0.00668	-0.01078	-0.00354
1.33555	-3.57E-05	-0.00321	-0.00517	-0.0017
1.33605	-4.46E-05	-0.004	-0.00646	-0.00212
1.33654	-8.13E-05	-0.0073	-0.01177	-0.00387
1.33704	-5.19E-05	-0.00466	-0.00751	-0.00247
1.33754	-1.35E-05	-0.00121	-0.00196	-6.43E-04
1.33804	-4.66E-05	-0.00418	-0.00675	-0.00222
1.33854	-3.59E-05	-0.00322	-0.0052	-0.00171
1.33904	-2.17E-05	-0.00195	-0.00315	-0.00104
1.33953	-6.44E-05	-0.00578	-0.00933	-0.00307
1.34007	-5.57E-05	-0.005	-0.00807	-0.00265
1.34058	-4.43E-05	-0.00398	-0.00642	-0.00211
1.34108	-4.82E-05	-0.00433	-0.00698	-0.00229
1.34158	-5.31E-05	-0.00477	-0.0077	-0.00253
1.34208	-3.74E-05	-0.00336	-0.00542	-0.00178
1.34258	-4.69E-05	-0.00421	-0.00679	-0.00223
1.34308	-6.01E-05	-0.0054	-0.00871	-0.00286
1.34358	-5.32E-05	-0.00477	-0.0077	-0.00253
1.34408	-5.82E-05	-0.00522	-0.00843	-0.00277
1.34458	-7.82E-05	-0.00702	-0.01132	-0.00372
1.34508	-3.53E-05	-0.00317	-0.00512	-0.00168
1.34558	-3.73E-05	-0.00334	-0.0054	-0.00177
1.34607	-9.49E-05	-0.00852	-0.01375	-0.00452
1.34657	-6.76E-05	-0.00607	-0.0098	-0.00322
1.34707	-5.58E-05	-0.00501	-0.00808	-0.00266
1.34757	-7.05E-05	-0.00633	-0.01022	-0.00336
1.34807	-5.85E-05	-0.00525	-0.00847	-0.00279
1.34856	-3.98E-05	-0.00357	-0.00576	-0.00189
1.34907	-7.55E-05	-0.00678	-0.01094	-0.0036
1.34957	-6.74E-05	-0.00605	-0.00977	-0.00321
1.35006	-5.36E-05	-0.00481	-0.00776	-0.00255
1.35056	-6.34E-05	-0.00569	-0.00918	-0.00302
1.35107	-8.71E-05	-0.00782	-0.01261	-0.00415
1.35156	-4.38E-05	-0.00393	-0.00634	-0.00208
1.35206	-6.36E-05	-0.00571	-0.00922	-0.00303
1.35256	-1.22E-04	-0.01099	-0.01774	-0.00583
1.35306	-8.76E-05	-0.00787	-0.0127	-0.00417
1.35356	-6.90E-05	-0.0062	-0.01	-0.00329
1.35405	-7.91E-05	-0.0071	-0.01146	-0.00377
1.35455	-4.64E-05	-0.00416	-0.00672	-0.00221
1.35506	-5.90E-05	-0.0053	-0.00855	-0.00281
1.35556	-6.42E-05	-0.00577	-0.00931	-0.00306
1.35606	-5.84E-05	-0.00524	-0.00846	-0.00278
1.35656	-2.17E-05	-0.00195	-0.00315	-0.00103
1.35705	-5.55E-05	-0.00498	-0.00803	-0.00264
1.35756	-5.02E-05	-0.0045	-0.00727	-0.00239
1.35806	-4.70E-05	-0.00422	-0.00681	-0.00224
1.35855	-7.27E-05	-0.00652	-0.01053	-0.00346
1.35904	-1.15E-04	-0.01029	-0.01661	-0.00546
1.35955	-6.66E-05	-0.00598	-0.00965	-0.00317
1.36005	-6.86E-05	-0.00616	-0.00994	-0.00327
1.36054	-1.31E-04	-0.01173	-0.01892	-0.00622
1.36105	-7.45E-05	-0.00668	-0.01079	-0.00355
1.36155	-8.02E-05	-0.0072	-0.01161	-0.00382
1.36204	-9.75E-05	-0.00876	-0.01413	-0.00464
1.36254	-7.40E-05	-0.00664	-0.01072	-0.00352
1.36305	-6.82E-05	-0.00612	-0.00988	-0.00325
1.36354	-6.28E-05	-0.00563	-0.00909	-0.00299
1.36404	-4.68E-05	-0.0042	-0.00677	-0.00223
1.36454	-6.08E-05	-0.00545	-0.0088	-0.00289
1.36504	-8.56E-05	-0.00768	-0.0124	-0.00408
1.36554	-6.62E-05	-0.00595	-0.0096	-0.00315
1.36604	-3.77E-05	-0.00339	-0.00546	-0.0018
1.36655	-5.97E-05	-0.00536	-0.00864	-0.00284
1.36705	-6.84E-05	-0.00614	-0.0099	-0.00326
1.36755	-5.18E-05	-0.00465	-0.0075	-0.00247
1.36805	-5.34E-05	-0.00479	-0.00774	-0.00254
1.36855	-7.43E-05	-0.00667	-0.01076	-0.00354
1.36904	-4.04E-05	-0.00362	-0.00585	-0.00192
1.36955	-4.44E-06	-3.99E-04	-6.43E-04	-2.12E-04
1.37004	-4.50E-05	-0.00404	-0.00651	-0.00214
1.37054	-3.83E-05	-0.00344	-0.00555	-0.00182
1.37104	-7.08E-06	-6.35E-04	-0.00103	-3.37E-04
1.37154	-3.31E-05	-0.00297	-0.0048	-0.00158
1.37204	-2.65E-05	-0.00238	-0.00384	-0.00126
1.37254	2.16E-05	0.00194	0.00313	0.00103
1.37304	-2.67E-05	-0.0024	-0.00387	-0.00127
1.37354	-1.69E-05	-0.00152	-0.00245	-8.04E-04
1.37403	1.82E-05	0.00164	0.00264	8.68E-04
1.37453	3.29E-06	2.96E-04	4.77E-04	1.57E-04
1.37504	-2.30E-05	-0.00207	-0.00333	-0.0011
1.37553	-1.61E-06	-1.44E-04	-2.33E-04	-7.65E-05
1.37603	8.50E-06	7.63E-04	0.00123	4.05E-04
1.37653	-3.29E-05	-0.00295	-0.00476	-0.00156
1.37703	-1.32E-05	-0.00119	-0.00192	-6.31E-04
1.37752	1.67E-05	0.0015	0.00242	7.95E-04
1.37802	-1.33E-05	-0.0012	-0.00193	-6.35E-04
1.37853	-7.07E-07	-6.35E-05	-1.02E-04	-3.37E-05
1.37903	2.37E-05	0.00212	0.00343	0.00113
1.37952	2.11E-05	0.00189	0.00305	0.001
1.38002	1.60E-05	0.00143	0.00231	7.60E-04
1.38052	2.89E-05	0.00259	0.00418	0.00137
1.38102	-1.51E-05	-0.00136	-0.00219	-7.20E-04
1.38152	-9.88E-06	-8.87E-04	-0.00143	-4.70E-04
1.38203	2.22E-05	0.00199	0.00321	0.00106
1.38252	-7.40E-07	-6.65E-05	-1.07E-04	-3.53E-05
1.38301	-3.06E-05	-0.00274	-0.00443	-0.00145
1.38352	-1.77E-05	-0.00159	-0.00257	-8.43E-04
1.38401	-2.62E-05	-0.00236	-0.0038	-0.00125
1.38451	-5.98E-05	-0.00537	-0.00866	-0.00285
1.38501	-4.50E-05	-0.00404	-0.00652	-0.00214
1.38552	-3.77E-05	-0.00338	-0.00546	-0.00179
1.38601	-4.40E-05	-0.00395	-0.00637	-0.00209
1.38651	-2.03E-05	-0.00183	-0.00295	-9.69E-04
1.38702	1.79E-05	0.00161	0.0026	8.54E-04
1.38751	-3.18E-05	-0.00285	-0.0046	-0.00151
1.38801	-2.71E-05	-0.00243	-0.00393	-0.00129
1.38852	-5.94E-06	-5.33E-04	-8.61E-04	-2.83E-04
1.38901	-4.21E-05	-0.00378	-0.00609	-0.002
1.38951	-2.26E-05	-0.00203	-0.00327	-0.00108
1.39001	-7.07E-07	-6.35E-05	-1.02E-04	-3.37E-05
1.39051	-2.22E-05	-0.002	-0.00322	-0.00106
1.39101	-3.77E-05	-0.00338	-0.00546	-0.00179
1.39155	1.18E-05	0.00106	0.00171	5.63E-04
1.39205	5.37E-05	0.00482	0.00778	0.00256
1.39255	-1.50E-05	-0.00135	-0.00218	-7.16E-04
1.39306	3.50E-05	0.00315	0.00508	0.00167
1.39355	6.22E-05	0.00559	0.00902	0.00296
1.39405	5.63E-06	5.05E-04	8.15E-04	2.68E-04
1.39456	2.20E-05	0.00198	0.00319	0.00105
1.39505	3.92E-05	0.00352	0.00568	0.00187
1.39555	1.77E-05	0.00159	0.00257	8.44E-04
1.39605	3.82E-05	0.00343	0.00554	0.00182
1.39655	4.72E-05	0.00424	0.00684	0.00225
1.39704	-9.24E-06	-8.30E-04	-0.00134	-4.40E-04
1.39754	-1.39E-05	-0.00125	-0.00201	-6.61E-04
1.39803	4.71E-05	0.00423	0.00683	0.00224
1.39854	2.92E-05	0.00262	0.00424	0.00139
1.39904	-2.68E-05	-0.0024	-0.00388	-0.00128
1.39953	-2.73E-07	-2.45E-05	-3.96E-05	-1.30E-05
1.40003	2.23E-05	0.002	0.00323	0.00106
1.40053	-2.39E-05	-0.00215	-0.00347	-0.00114
1.40104	2.42E-05	0.00218	0.00351	0.00115
1.40153	7.60E-05	0.00682	0.01101	0.00362
1.40203	5.15E-05	0.00462	0.00746	0.00245
1.40253	5.54E-05	0.00498	0.00803	0.00264
1.40303	6.97E-05	0.00626	0.0101	0.00332
1.40352	2.29E-05	0.00205	0.00331	0.00109
1.40403	2.31E-05	0.00207	0.00335	0.0011
1.40454	3.72E-05	0.00334	0.00539	0.00177
1.40502	5.39E-05	0.00484	0.00781	0.00257
1.40552	3.71E-05	0.00333	0.00538	0.00177
1.40602	7.87E-05	0.00707	0.0114	0.00375
1.40652	8.73E-05	0.00784	0.01265	0.00416
1.40702	1.91E-05	0.00171	0.00276	9.08E-04
1.40753	3.45E-05	0.00309	0.00499	0.00164
1.40802	5.37E-05	0.00482	0.00779	0.00256
1.40852	3.22E-05	0.00289	0.00467	0.00153
1.40902	1.82E-05	0.00163	0.00263	8.65E-04
1.40953	2.96E-05	0.00265	0.00428	0.00141
1.41002	-1.69E-05	-0.00152	-0.00245	-8.05E-04
1.41052	-5.18E-06	-4.65E-04	-7.50E-04	-2.46E-04
1.41103	2.89E-05	0.00259	0.00419	0.00138
1.41152	7.56E-06	6.79E-04	0.0011	3.60E-04
1.41202	1.33E-05	0.00119	0.00193	6.33E-04
1.41252	2.99E-05	0.00268	0.00433	0.00142
1.41301	-8.24E-06	-7.40E-04	-0.00119	-3.93E-04
1.41351	-3.18E-05	-0.00286	-0.00461	-0.00152
1.41401	1.07E-05	9.63E-04	0.00155	5.11E-04
1.41451	-2.27E-05	-0.00204	-0.0033	-0.00108
1.415	-3.28E-05	-0.00295	-0.00475	-0.00156
1.4155	1.03E-05	9.21E-04	0.00149	4.89E-04
1.416	2.83E-05	0.00254	0.0041	0.00135
1.4165	-9.28E-06	-8.33E-04	-0.00134	-4.42E-04
1.41705	9.83E-06	8.82E-04	0.00142	4.68E-04
1.41755	6.20E-05	0.00556	0.00898	0.00295
1.41805	5.40E-06	4.84E-04	7.82E-04	2.57E-04
1.41856	2.21E-05	0.00199	0.00321	0.00105
1.41906	2.84E-05	0.00255	0.00411	0.00135
1.41956	-1.18E-05	-0.00106	-0.00171	-5.61E-04
1.42005	-1.42E-05	-0.00127	-0.00205	-6.75E-04
1.42056	2.16E-05	0.00194	0.00313	0.00103
1.42105	-7.58E-06	-6.80E-04	-0.0011	-3.61E-04
1.42155	2.93E-06	2.63E-04	4.24E-04	1.39E-04
1.42205	3.14E-05	0.00282	0.00455	0.0015
1.42255	6.96E-06	6.25E-04	0.00101	3.32E-04
1.42304	-5.81E-06	-5.21E-04	-8.42E-04	-2.77E-04
1.42355	2.35E-05	0.00211	0.0034	0.00112
1.42404	3.87E-05	0.00347	0.00561	0.00184
1.42454	1.09E-06	9.82E-05	1.58E-04	5.21E-05
1.42504	1.10E-05	9.90E-04	0.0016	5.25E-04
1.42554	5.72E-05	0.00514	0.00829	0.00273
1.42604	1.69E-05	0.00152	0.00245	8.05E-04
1.42655	1.85E-05	0.00166	0.00268	8.79E-04
1.42703	4.44E-05	0.00399	0.00643	0.00211
1.42753	2.23E-05	0.002	0.00324	0.00106
1.42803	4.12E-05	0.0037	0.00597	0.00196
1.42853	7.25E-05	0.00651	0.0105	0.00345
1.42903	2.63E-05	0.00236	0.00381	0.00125
1.42953	2.39E-05	0.00214	0.00346	0.00114
1.43004	3.05E-05	0.00274	0.00442	0.00145
1.43053	6.24E-05	0.00561	0.00905	0.00297
1.43102	2.26E-05	0.00203	0.00328	0.00108
1.43152	5.19E-05	0.00466	0.00752	0.00247
1.43203	6.12E-05	0.0055	0.00887	0.00292
1.43253	7.63E-06	6.85E-04	0.00111	3.63E-04
1.43303	2.28E-05	0.00205	0.00331	0.00109
1.43353	1.67E-05	0.0015	0.00241	7.94E-04
1.43402	1.66E-06	1.49E-04	2.41E-04	7.91E-05
1.43453	2.03E-06	1.82E-04	2.94E-04	9.65E-05
1.43503	6.13E-06	5.50E-04	8.88E-04	2.92E-04
1.43552	-4.40E-07	-3.95E-05	-6.38E-05	-2.10E-05
1.43602	1.05E-05	9.45E-04	0.00153	5.01E-04
1.43653	4.31E-05	0.00387	0.00625	0.00205
1.43702	8.56E-06	7.69E-04	0.00124	4.08E-04
1.43752	6.94E-07	6.23E-05	1.00E-04	3.30E-05
1.43802	2.32E-05	0.00208	0.00336	0.0011
1.43852	4.44E-05	0.00398	0.00643	0.00211
1.43902	1.15E-05	0.00103	0.00167	5.48E-04
1.43952	2.61E-05	0.00234	0.00378	0.00124
1.44002	6.20E-05	0.00556	0.00898	0.00295
1.44051	2.05E-05	0.00184	0.00297	9.76E-04
1.44101	3.35E-05	0.00301	0.00486	0.0016
1.44151	4.15E-05	0.00373	0.00601	0.00198
1.442	3.77E-05	0.00338	0.00546	0.00179
1.44255	2.08E-05	0.00186	0.00301	9.89E-04
1.44305	2.51E-05	0.00225	0.00363	0.00119
1.44356	4.55E-05	0.00409	0.00659	0.00217
1.44405	3.90E-05	0.0035	0.00565	0.00186
1.44455	6.27E-05	0.00563	0.00909	0.00299
1.44505	2.22E-05	0.002	0.00322	0.00106
1.44556	1.31E-05	0.00117	0.00189	6.22E-04
1.44605	4.92E-05	0.00442	0.00713	0.00234
1.44655	4.20E-05	0.00377	0.00609	0.002
1.44705	1.58E-05	0.00142	0.00228	7.51E-04
1.44754	4.66E-05	0.00418	0.00675	0.00222
1.44804	5.83E-05	0.00523	0.00844	0.00278
1.44854	2.68E-05	0.00241	0.00388	0.00128
1.44904	5.22E-05	0.00468	0.00756	0.00248
1.44954	8.19E-05	0.00735	0.01186	0.0039
1.45004	4.86E-05	0.00436	0.00704	0.00231
1.45054	4.58E-05	0.00411	0.00664	0.00218
1.45104	6.11E-05	0.00549	0.00885	0.00291
1.45154	6.14E-05	0.00551	0.00889	0.00292
1.45204	7.39E-05	0.00664	0.01071	0.00352
1.45254	5.74E-05	0.00515	0.00831	0.00273
1.45303	5.29E-05	0.00475	0.00766	0.00252
1.45353	2.51E-05	0.00226	0.00364	0.0012
1.45403	4.94E-05	0.00443	0.00715	0.00235
1.45452	5.93E-05	0.00532	0.00859	0.00282
1.45503	2.10E-05	0.00189	0.00305	0.001
1.45553	4.17E-05	0.00374	0.00604	0.00199
1.45602	9.20E-05	0.00826	0.01333	0.00438
1.45652	6.90E-05	0.00619	0.00999	0.00328
1.45702	1.24E-04	0.01117	0.01802	0.00592
1.45752	1.17E-04	0.01052	0.01698	0.00558
1.45803	8.87E-05	0.00796	0.01285	0.00423
1.45853	9.82E-05	0.00881	0.01423	0.00468
1.45903	9.70E-05	0.0087	0.01405	0.00462
1.45952	6.27E-05	0.00563	0.00908	0.00298
1.46002	7.27E-05	0.00653	0.01054	0.00346
1.46052	1.13E-04	0.01014	0.01637	0.00538
1.46102	6.52E-05	0.00585	0.00945	0.00311
1.46152	7.48E-05	0.00671	0.01083	0.00356
1.46202	1.01E-04	0.00908	0.01465	0.00481
1.46252	1.11E-04	0.00994	0.01605	0.00527
1.46301	7.21E-05	0.00647	0.01045	0.00343
1.46352	8.95E-05	0.00803	0.01296	0.00426
1.46401	9.78E-05	0.00878	0.01416	0.00466
1.46451	5.24E-05	0.00471	0.0076	0.0025
1.46501	6.20E-05	0.00556	0.00898	0.00295
1.46551	8.43E-05	0.00757	0.01222	0.00402
1.46601	6.37E-05	0.00572	0.00923	0.00303
1.46651	7.83E-05	0.00702	0.01134	0.00373
1.46701	9.44E-05	0.00847	0.01367	0.00449
1.4675	7.51E-05	0.00674	0.01087	0.00357
1.46801	1.03E-04	0.00922	0.01489	0.00489
1.46852	1.39E-04	0.01252	0.0202	0.00664
1.46902	1.20E-04	0.01073	0.01732	0.00569
1.46952	9.18E-05	0.00824	0.01329	0.00437
1.47002	1.13E-04	0.01012	0.01633	0.00537
1.47052	1.04E-04	0.00931	0.01502	0.00494
1.47102	4.92E-05	0.00442	0.00713	0.00234
1.47152	7.62E-05	0.00684	0.01104	0.00363
1.47201	1.06E-04	0.00955	0.01542	0.00507
1.47251	9.41E-05	0.00845	0.01364	0.00448
1.47301	1.23E-04	0.01107	0.01787	0.00587
1.47351	1.32E-04	0.01186	0.01914	0.00629
1.47401	1.01E-04	0.0091	0.01469	0.00483
1.47451	1.40E-04	0.01258	0.0203	0.00667
1.475	1.51E-04	0.01354	0.02186	0.00718
1.4755	1.07E-04	0.00962	0.01552	0.0051
1.476	1.31E-04	0.01176	0.01898	0.00624
1.4765	1.62E-04	0.01454	0.02347	0.00771
1.477	1.50E-04	0.0135	0.02179	0.00716
1.4775	1.39E-04	0.01252	0.0202	0.00664
1.478	1.41E-04	0.01266	0.02042	0.00671
1.47849	1.81E-04	0.01621	0.02615	0.0086
1.479	1.37E-04	0.01226	0.01979	0.00651
1.47949	1.53E-04	0.01371	0.02212	0.00727
1.47999	2.05E-04	0.01836	0.02963	0.00974
1.48049	1.78E-04	0.01601	0.02584	0.00849
1.48099	1.71E-04	0.01538	0.02482	0.00816
1.48149	1.92E-04	0.01721	0.02777	0.00913
1.48199	1.96E-04	0.01763	0.02845	0.00935
1.48248	2.57E-04	0.02311	0.03729	0.01226
1.48298	3.09E-04	0.02774	0.04476	0.01471
1.48349	2.47E-04	0.02219	0.03582	0.01177
1.484	2.67E-04	0.02397	0.03868	0.01271
1.48449	2.88E-04	0.02586	0.04174	0.01372
1.48499	2.56E-04	0.02295	0.03703	0.01217
1.48549	2.14E-04	0.01917	0.03093	0.01017
1.48599	2.93E-04	0.02627	0.04241	0.01394
1.48649	2.85E-04	0.02559	0.04129	0.01357
1.48697	2.65E-04	0.0238	0.03841	0.01262
1.48748	2.80E-04	0.02515	0.04059	0.01334
1.48798	3.05E-04	0.02734	0.04413	0.01451
1.48848	2.73E-04	0.02454	0.03961	0.01302
1.48898	2.83E-04	0.0254	0.04099	0.01347
1.48948	3.05E-04	0.02737	0.04418	0.01452
1.48997	2.79E-04	0.02501	0.04037	0.01327
1.49048	3.20E-04	0.02873	0.04637	0.01524
1.49098	3.97E-04	0.03566	0.05755	0.01892
1.49147	3.25E-04	0.02921	0.04713	0.01549
1.49197	3.23E-04	0.029	0.04681	0.01539
1.49247	4.17E-04	0.03742	0.06039	0.01985
1.49297	3.54E-04	0.03177	0.05127	0.01685
1.4935	3.54E-04	0.0318	0.05133	0.01687
1.49401	4.13E-04	0.03708	0.05984	0.01967
1.49451	4.39E-04	0.03943	0.06364	0.02092
1.49502	4.14E-04	0.03718	0.06	0.01972
1.49552	4.51E-04	0.04048	0.06534	0.02148
1.49601	4.45E-04	0.03992	0.06442	0.02118
1.49651	4.17E-04	0.03748	0.06048	0.01988
1.49701	4.51E-04	0.04046	0.0653	0.02146
1.49751	4.84E-04	0.04348	0.07018	0.02307
1.498	5.00E-04	0.04487	0.07241	0.0238
1.49851	5.15E-04	0.04621	0.07458	0.02452
1.499	5.55E-04	0.04978	0.08034	0.02641
1.4995	5.67E-04	0.05091	0.08216	0.02701
1.50001	5.29E-04	0.04748	0.07662	0.02519
1.5005	6.54E-04	0.05868	0.09471	0.03113
1.501	6.49E-04	0.05828	0.09406	0.03092
1.5015	6.21E-04	0.05578	0.09002	0.02959
1.50199	7.19E-04	0.06458	0.10423	0.03426
1.5025	6.97E-04	0.06256	0.10096	0.03318
1.503	6.85E-04	0.06153	0.0993	0.03264
1.5035	7.48E-04	0.06717	0.10841	0.03563
1.50399	7.62E-04	0.06843	0.11044	0.0363
1.50449	7.69E-04	0.06903	0.11142	0.03662
1.50499	8.01E-04	0.07188	0.11601	0.03813
1.50549	8.38E-04	0.07522	0.1214	0.0399
1.50599	8.15E-04	0.07312	0.11801	0.03879
1.50649	8.53E-04	0.07658	0.12359	0.04062
1.50699	9.09E-04	0.08164	0.13176	0.04331
1.50749	9.22E-04	0.08274	0.13353	0.04389
1.50798	9.33E-04	0.08371	0.1351	0.04441
1.50848	0.00103	0.09238	0.14909	0.049
1.50898	9.60E-04	0.08614	0.13902	0.04569
1.50949	0.001	0.08988	0.14506	0.04768
1.50999	0.00107	0.09588	0.15474	0.05086
1.51048	0.00105	0.09397	0.15166	0.04985
1.51098	0.00103	0.09249	0.14927	0.04906
1.51148	0.00109	0.09789	0.15799	0.05193
1.51198	0.00113	0.10151	0.16382	0.05385
1.51247	0.00116	0.10404	0.16792	0.05519
1.51297	0.00117	0.105	0.16946	0.0557
1.51347	0.00125	0.11237	0.18136	0.05961
1.51397	0.00124	0.1112	0.17947	0.05899
1.51448	0.00124	0.11133	0.17968	0.05906
1.51497	0.00136	0.12226	0.19732	0.06486
1.51547	0.00136	0.12234	0.19745	0.0649
1.51597	0.00138	0.12379	0.19979	0.06567
1.51646	0.00151	0.13584	0.21923	0.07206
1.51696	0.00149	0.13353	0.2155	0.07083
1.51747	0.00148	0.13241	0.2137	0.07024
1.51796	0.00155	0.13883	0.22406	0.07365
1.51846	0.00159	0.14236	0.22975	0.07552
1.51897	0.00161	0.14489	0.23385	0.07686
1.51947	0.00167	0.15022	0.24244	0.07969
1.51997	0.00173	0.15535	0.25073	0.08241
1.52048	0.00173	0.1555	0.25097	0.08249
1.52097	0.00178	0.15989	0.25804	0.08482
1.52147	0.00182	0.16335	0.26364	0.08665
1.52197	0.00183	0.16465	0.26573	0.08734
1.52247	0.00188	0.16892	0.27262	0.08961
1.52296	0.00197	0.17644	0.28477	0.0936
1.52347	0.00196	0.17616	0.28431	0.09345
1.52396	0.00204	0.1828	0.29502	0.09697
1.52446	0.00214	0.19173	0.30944	0.10171
1.52495	0.00216	0.19403	0.31315	0.10293
1.52546	0.00217	0.19505	0.3148	0.10347
1.52595	0.00227	0.20402	0.32927	0.10823
1.52646	0.00232	0.20809	0.33583	0.11039
1.52696	0.00231	0.20764	0.33511	0.11015
1.52745	0.0024	0.21528	0.34744	0.1142
1.52795	0.00239	0.21459	0.34633	0.11383
1.52846	0.00243	0.21827	0.35226	0.11579
1.52895	0.00253	0.22711	0.36654	0.12048
1.52945	0.00259	0.2322	0.37475	0.12318
1.52995	0.00261	0.23432	0.37818	0.1243
1.53045	0.0027	0.24201	0.39058	0.12838
1.53094	0.00277	0.24846	0.40099	0.1318
1.53145	0.00279	0.25089	0.40492	0.13309
1.53195	0.00288	0.25894	0.41791	0.13736
1.53244	0.00293	0.2628	0.42414	0.13941
1.53293	0.003	0.26975	0.43535	0.14309
1.53343	0.00305	0.27349	0.44139	0.14508
1.53394	0.00307	0.27572	0.445	0.14626
1.53444	0.0031	0.27792	0.44855	0.14743
1.53494	0.00316	0.28359	0.45769	0.15044
1.53545	0.00319	0.28621	0.46191	0.15183
1.53594	0.00323	0.28951	0.46724	0.15358
1.53645	0.00328	0.29439	0.47513	0.15617
1.53695	0.00333	0.29893	0.48245	0.15858
1.53745	0.00337	0.30235	0.48796	0.16039
1.53794	0.00341	0.30624	0.49425	0.16245
1.53845	0.00354	0.31802	0.51325	0.1687
1.53894	0.00356	0.31926	0.51527	0.16936
1.53944	0.00358	0.321	0.51807	0.17028
1.53994	0.0037	0.33204	0.53589	0.17614
1.54044	0.00379	0.34065	0.54977	0.1807
1.54093	0.00383	0.34388	0.555	0.18242
1.54144	0.00393	0.3525	0.5689	0.18699
1.54193	0.00395	0.35468	0.57242	0.18815
1.54243	0.00399	0.358	0.57778	0.18991
1.54294	0.00407	0.36556	0.58998	0.19392
1.54343	0.00415	0.37269	0.60148	0.1977
1.54393	0.00422	0.37874	0.61125	0.20091
1.54447	0.00429	0.38491	0.62121	0.20419
1.54497	0.00444	0.39825	0.64275	0.21126
1.54547	0.00446	0.40023	0.64593	0.21231
1.54598	0.0045	0.4036	0.65138	0.2141
1.54647	0.00466	0.41843	0.67531	0.22197
1.54697	0.00468	0.42019	0.67815	0.2229
1.54748	0.0047	0.42216	0.68134	0.22395
1.54797	0.00482	0.43289	0.69866	0.22964
1.54847	0.00487	0.43692	0.70515	0.23177
1.54897	0.00493	0.44277	0.71459	0.23488
1.54947	0.00502	0.45024	0.72665	0.23884
1.54996	0.00512	0.46	0.7424	0.24402
1.55047	0.00515	0.46242	0.7463	0.2453
1.55096	0.00531	0.47636	0.76881	0.2527
1.55146	0.00536	0.4808	0.77597	0.25505
1.55196	0.00541	0.48568	0.78384	0.25764
1.55245	0.00556	0.49947	0.8061	0.26496
1.55295	0.00561	0.50319	0.81211	0.26693
1.55346	0.00565	0.50726	0.81867	0.26909
1.55396	0.00573	0.5143	0.83003	0.27282
1.55445	0.00586	0.52628	0.84937	0.27918
1.55495	0.00594	0.53365	0.86126	0.28309
1.55545	0.00605	0.54317	0.87664	0.28814
1.55594	0.00614	0.55147	0.89002	0.29254
1.55644	0.0062	0.55654	0.89821	0.29523
1.55694	0.00634	0.56924	0.91871	0.30197
1.55745	0.00644	0.57835	0.9334	0.3068
1.55793	0.00651	0.58452	0.94336	0.31007
1.55844	0.00666	0.59745	0.96424	0.31693
1.55894	0.00681	0.61095	0.98602	0.32409
1.55944	0.00679	0.60964	0.98391	0.3234
1.55995	0.00688	0.61715	0.99603	0.32738
1.56044	0.00705	0.63277	1.02124	0.33567
1.56094	0.00712	0.6387	1.0308	0.33881
1.56145	0.00715	0.64202	1.03617	0.34058
1.56194	0.0073	0.65522	1.05748	0.34758
1.56244	0.00738	0.66288	1.06984	0.35164
1.56294	0.00745	0.66875	1.07931	0.35476
1.56344	0.00756	0.67877	1.09548	0.36007
1.56393	0.00769	0.69027	1.11404	0.36617
1.56443	0.00781	0.70071	1.13089	0.37171
1.56493	0.00789	0.70869	1.14377	0.37595
1.56542	0.00807	0.72409	1.16863	0.38412
1.56592	0.00811	0.72771	1.17447	0.38603
1.56643	0.00823	0.73884	1.19242	0.39194
1.56692	0.00839	0.75297	1.21523	0.39943
1.56742	0.00848	0.76081	1.22788	0.40359
1.56792	0.00862	0.77353	1.24841	0.41034
1.56842	0.00878	0.78816	1.27203	0.4181
1.56892	0.00886	0.79493	1.28294	0.42169
1.56943	0.00899	0.80703	1.30248	0.42811
1.56993	0.00912	0.81911	1.32197	0.43452
1.57043	0.00921	0.82704	1.33478	0.43873
1.57092	0.00941	0.84503	1.3638	0.44827
1.57142	0.0095	0.85307	1.37678	0.45253
1.57192	0.00956	0.85803	1.38479	0.45517
1.57243	0.00965	0.86617	1.39793	0.45948
1.57293	0.0098	0.87948	1.41941	0.46654
1.57343	0.00988	0.88723	1.43192	0.47066
1.57393	0.01003	0.90062	1.45352	0.47776
1.57443	0.0102	0.91581	1.47803	0.48581
1.57492	0.01032	0.92618	1.49477	0.49132
1.57542	0.01042	0.93571	1.51016	0.49637
1.57592	0.01059	0.95032	1.53374	0.50412
1.57642	0.01074	0.96392	1.55568	0.51134
1.57692	0.01083	0.97257	1.56964	0.51592
1.57742	0.01101	0.98806	1.59464	0.52414
1.5779	0.01122	1.00744	1.62592	0.53442
1.57842	0.01131	1.01483	1.63785	0.53834
1.57891	0.0115	1.03208	1.66568	0.54749
1.5794	0.01168	1.04807	1.69149	0.55598
1.5799	0.01183	1.06172	1.71353	0.56322
1.5804	0.012	1.07741	1.73884	0.57154
1.5809	0.01215	1.09033	1.75971	0.5784
1.5814	0.01223	1.09818	1.77237	0.58256
1.5819	0.01244	1.11664	1.80216	0.59235
1.58239	0.01267	1.13765	1.83607	0.6035
1.58289	0.01279	1.14829	1.85325	0.60914
1.58339	0.01296	1.16326	1.8774	0.61708
1.5839	0.01308	1.17434	1.89528	0.62296
1.58439	0.0132	1.18525	1.91289	0.62875
1.5849	0.01337	1.20043	1.9374	0.6368
1.5854	0.0136	1.22049	1.96977	0.64744
1.5859	0.01374	1.23351	1.99078	0.65435
1.5864	0.01391	1.24865	2.01522	0.66238
1.58689	0.01418	1.27333	2.05505	0.67547
1.58739	0.01433	1.28633	2.07603	0.68237
1.5879	0.01451	1.30291	2.10279	0.69116
1.5884	0.01475	1.32428	2.13727	0.7025
1.58889	0.01491	1.33879	2.16069	0.71019
1.58939	0.01508	1.35406	2.18534	0.7183
1.58989	0.01534	1.37679	2.22202	0.73035
1.59039	0.0155	1.39115	2.2452	0.73797
1.59087	0.01586	1.42332	2.29712	0.75504
1.59138	0.01601	1.43677	2.31882	0.76217
1.59189	0.01614	1.44879	2.33823	0.76855
1.59239	0.01634	1.46678	2.36726	0.77809
1.59289	0.01653	1.484	2.39504	0.78722
1.59338	0.01677	1.50519	2.42924	0.79847
1.59392	0.01697	1.52351	2.45882	0.80819
1.59443	0.01722	1.54588	2.49492	0.82005
1.59494	0.01747	1.5682	2.53093	0.83189
1.59544	0.01769	1.58837	2.5635	0.84259
1.59593	0.01796	1.61254	2.6025	0.85541
1.59643	0.01823	1.63664	2.6414	0.8682
1.59692	0.0185	1.66059	2.68005	0.8809
1.59741	0.01885	1.692	2.73074	0.89756
1.59791	0.01904	1.70937	2.75877	0.90678
1.59842	0.01925	1.72793	2.78874	0.91663
1.59893	0.01949	1.74954	2.82361	0.92809
1.59942	0.01974	1.77241	2.86052	0.94022
1.59992	0.02006	1.80036	2.90564	0.95505
1.60042	0.0203	1.82259	2.94151	0.96684
1.60091	0.02053	1.84294	2.97436	0.97764
1.60142	0.02079	1.86637	3.01216	0.99007
1.60191	0.02118	1.90091	3.06791	1.00839
1.6024	0.02151	1.93048	3.11564	1.02408
1.60291	0.02173	1.95105	3.14884	1.03499
1.60339	0.02216	1.98933	3.21061	1.05529
1.60389	0.02239	2.01013	3.24418	1.06633
1.6044	0.02263	2.03185	3.27923	1.07785
1.6049	0.02301	2.06591	3.33421	1.09592
1.6054	0.02329	2.09043	3.37377	1.10892
1.60591	0.02357	2.11591	3.4149	1.12244
1.6064	0.02398	2.15297	3.47472	1.1421
1.60688	0.02435	2.18591	3.52787	1.15957
1.60739	0.02467	2.21478	3.57447	1.17489
1.60787	0.02508	2.25178	3.63418	1.19451
1.60839	0.02534	2.27431	3.67054	1.20647
1.60889	0.02567	2.30452	3.71931	1.2225
1.6094	0.02602	2.3359	3.76995	1.23914
1.60989	0.02633	2.3639	3.81513	1.25399
1.61039	0.02667	2.39447	3.86447	1.27021
1.61089	0.02709	2.43199	3.92503	1.29011
1.61138	0.02743	2.46245	3.97418	1.30627
1.61189	0.02782	2.49772	4.03111	1.32498
1.61239	0.02822	2.53296	4.08798	1.34367
1.61288	0.02858	2.56568	4.14079	1.36103
1.61338	0.02899	2.60265	4.20045	1.38064
1.61388	0.0294	2.63911	4.2593	1.39999
1.61438	0.02977	2.67249	4.31317	1.41769
1.61488	0.03014	2.70594	4.36715	1.43543
1.61537	0.03063	2.74958	4.43759	1.45859
1.61586	0.03103	2.78511	4.49493	1.47743
1.61637	0.03142	2.82013	4.55145	1.49601
1.61686	0.03188	2.8622	4.61935	1.51833
1.61736	0.03228	2.89737	4.67611	1.53699
1.61791	0.03274	2.93921	4.74363	1.55918
1.61842	0.03322	2.98167	4.81216	1.58171
1.61892	0.03363	3.01844	4.87151	1.60121
1.61942	0.03412	3.06298	4.94339	1.62484
1.61991	0.03459	3.10485	5.01097	1.64705
1.62041	0.03506	3.14689	5.07882	1.66935
1.62091	0.03554	3.19016	5.14865	1.6923
1.6214	0.036	3.23204	5.21623	1.71452
1.62191	0.03649	3.27593	5.28708	1.7378
1.6224	0.03701	3.32265	5.36248	1.76259
1.6229	0.03755	3.37059	5.43984	1.78802
1.6234	0.03803	3.4134	5.50893	1.81073
1.6239	0.03856	3.46113	5.58597	1.83605
1.6244	0.03905	3.50535	5.65734	1.85951
1.6249	0.03957	3.55165	5.73207	1.88407
1.62539	0.04015	3.60423	5.81693	1.91196
1.62588	0.04067	3.65045	5.89152	1.93648
1.62639	0.04127	3.70439	5.97856	1.96509
1.62689	0.04184	3.75557	6.06118	1.99224
1.62738	0.04238	3.80414	6.13956	2.01801
1.62788	0.04301	3.86107	6.23144	2.0482
1.62838	0.0436	3.91419	6.31717	2.07638
1.62888	0.04418	3.9655	6.39998	2.1036
1.62939	0.04477	4.01893	6.48621	2.13195
1.62987	0.04534	4.07003	6.56869	2.15906
1.63038	0.04592	4.12241	6.65322	2.18684
1.63087	0.04661	4.18376	6.75223	2.21938
1.63137	0.04717	4.2347	6.83445	2.24641
1.63187	0.04781	4.29175	6.92652	2.27667
1.63239	0.04843	4.34714	7.01592	2.30606
1.63288	0.04901	4.39915	7.09985	2.33364
1.63338	0.0497	4.4616	7.20065	2.36677
1.63388	0.05036	4.52045	7.29562	2.39799
1.63437	0.05105	4.58232	7.39548	2.43081
1.63487	0.05168	4.63926	7.48738	2.46102
1.63537	0.05233	4.69707	7.58067	2.49168
1.63587	0.053	4.75747	7.67815	2.52372
1.63636	0.05371	4.82094	7.78059	2.5574
1.63686	0.05437	4.88106	7.87761	2.58928
1.63736	0.05502	4.93903	7.97117	2.62004
1.63785	0.05578	5.00702	8.0809	2.6561
1.63835	0.05646	5.06807	8.17943	2.68849
1.63885	0.05716	5.13103	8.28104	2.72189
1.63935	0.05784	5.19212	8.37963	2.75429
1.63988	0.05854	5.2551	8.48128	2.7877
1.6404	0.05931	5.32426	8.59291	2.8244
1.6409	0.06007	5.39225	8.70264	2.86046
1.6414	0.06079	5.45702	8.80717	2.89482
1.6419	0.06155	5.52499	8.91686	2.93087
1.64239	0.06227	5.5897	9.02131	2.96521
1.64289	0.06306	5.66072	9.13592	3.00288
1.64339	0.06382	5.72883	9.24585	3.03901
1.64389	0.06454	5.79368	9.3505	3.07341
1.6444	0.06534	5.865	9.4656	3.11124
1.64488	0.06617	5.93984	9.58639	3.15094
1.64538	0.06704	6.01797	9.71249	3.19239
1.64589	0.06775	6.08136	9.81481	3.22602
1.64639	0.06853	6.15179	9.92846	3.26338
1.64688	0.06935	6.22527	10.04706	3.30236
1.64737	0.07028	6.30836	10.18115	3.34643
1.64788	0.07099	6.37233	10.28439	3.38037
1.64838	0.0718	6.44513	10.4019	3.41899
1.64887	0.07271	6.52704	10.5341	3.46244
1.64937	0.07355	6.60198	10.65503	3.50219
1.64987	0.07441	6.67978	10.7806	3.54347
1.65036	0.07529	6.75858	10.90777	3.58526
1.65087	0.0761	6.83147	11.02542	3.62393
1.65137	0.07696	6.90832	11.14944	3.6647
1.65186	0.0778	6.98379	11.27124	3.70473
1.65236	0.07871	7.06566	11.40337	3.74816
1.65286	0.07957	7.14302	11.52823	3.7892
1.65337	0.0804	7.21746	11.64836	3.82869
1.65386	0.08134	7.30169	11.7843	3.87337
1.65436	0.08222	7.38085	11.91206	3.91536
1.65486	0.08309	7.45871	12.03772	3.95667
1.65536	0.084	7.54051	12.16973	4.00006
1.65586	0.08488	7.61909	12.29657	4.04175
1.65636	0.08578	7.70063	12.42816	4.085
1.65686	0.08668	7.78096	12.55781	4.12761
1.65736	0.08762	7.86547	12.6942	4.17244
1.65785	0.0886	7.95355	12.83635	4.21917
1.65834	0.0895	8.03426	12.96661	4.26198
1.65885	0.09037	8.1118	13.09175	4.30311
1.65934	0.09131	8.1966	13.22861	4.3481
1.65984	0.09224	8.28001	13.36324	4.39235
1.66034	0.0932	8.36614	13.50224	4.43804
1.66084	0.09411	8.44814	13.63458	4.48154
1.66134	0.09511	8.53774	13.77919	4.52907
1.66184	0.09609	8.62535	13.92058	4.57554
1.66236	0.09698	8.70534	14.04967	4.61797
1.66285	0.09802	8.79871	14.20036	4.6675
1.66335	0.09896	8.8836	14.33737	4.71254
1.66386	0.09989	8.96707	14.4721	4.75682
1.66434	0.10095	9.06173	14.62487	4.80703
1.66484	0.10186	9.1435	14.75683	4.85041
1.66533	0.10291	9.23792	14.90922	4.9005
1.66582	0.1039	9.32645	15.0521	4.94746
1.66633	0.10497	9.42269	15.20742	4.99851
1.66683	0.10595	9.51098	15.34992	5.04535
1.66732	0.10688	9.59409	15.48405	5.08944
1.66782	0.10792	9.68739	15.63462	5.13893
1.66831	0.1089	9.77561	15.777	5.18573
1.66882	0.10983	9.85906	15.91169	5.23
1.66931	0.11097	9.96115	16.07645	5.28415
1.6698	0.11194	10.0484	16.21726	5.33044
1.67031	0.11291	10.13526	16.35744	5.37651
1.6708	0.11396	10.2294	16.50939	5.42645
1.6713	0.11495	10.31848	16.65315	5.47371
1.67181	0.11598	10.41078	16.80211	5.52267
1.6723	0.11706	10.5079	16.95885	5.57419
1.67279	0.11811	10.60264	17.11176	5.62445
1.6733	0.11908	10.68982	17.25246	5.67069
1.67379	0.11999	10.7715	17.38429	5.71403
1.67429	0.12115	10.87509	17.55146	5.76897
1.6748	0.12207	10.95799	17.68526	5.81295
1.6753	0.12309	11.0493	17.83264	5.86139
1.6758	0.12419	11.14771	17.99146	5.9136
1.6763	0.12512	11.23199	18.12748	5.9583
1.67681	0.12615	11.3239	18.27581	6.00706
1.67729	0.12722	11.41967	18.43038	6.05786
1.67779	0.12821	11.50904	18.57462	6.10527
1.67829	0.12927	11.60439	18.7285	6.15585
1.67879	0.13022	11.68909	18.8652	6.20079
1.67928	0.13123	11.7804	19.01257	6.24922
1.67978	0.13226	11.87215	19.16065	6.29789
1.68028	0.13327	11.96354	19.30813	6.34637
1.68078	0.13435	12.06017	19.46409	6.39763
1.68127	0.13532	12.14737	19.60482	6.44389
1.68182	0.13633	12.23775	19.75069	6.49184
1.68232	0.13739	12.33271	19.90394	6.54221
1.68283	0.13838	12.4222	20.04837	6.58968
1.68333	0.13943	12.51649	20.20055	6.6397
1.68382	0.14042	12.60511	20.34357	6.68671
1.68433	0.14134	12.68803	20.47741	6.7307
1.68482	0.14241	12.78384	20.63204	6.78152
1.68532	0.1434	12.87222	20.77467	6.82841
1.68582	0.14439	12.96174	20.91915	6.8759
1.68632	0.14536	13.04869	21.05948	6.92202
1.68682	0.14636	13.13865	21.20467	6.96974
1.68731	0.14743	13.23467	21.35964	7.02068
1.68781	0.14836	13.31761	21.49349	7.06467
1.68831	0.14939	13.41059	21.64356	7.114
1.6888	0.15035	13.49637	21.78199	7.1595
1.68931	0.15134	13.58567	21.92612	7.20688
1.6898	0.15236	13.67692	22.07339	7.25528
1.69029	0.15336	13.76644	22.21787	7.30277
1.69079	0.1543	13.85094	22.35424	7.34759
1.69128	0.15534	13.94456	22.50534	7.39726
1.69178	0.15627	14.02763	22.63941	7.44133
1.69229	0.15727	14.11733	22.78417	7.48891
1.69278	0.15829	14.2089	22.93196	7.53748
1.69328	0.15929	14.29856	23.07666	7.58505
1.69378	0.16022	14.3825	23.21214	7.62958
1.69428	0.16113	14.46389	23.34349	7.67275
1.69478	0.1621	14.55124	23.48446	7.71909
1.69528	0.16308	14.63928	23.62656	7.76579
1.69579	0.16392	14.71444	23.74785	7.80566
1.69628	0.16496	14.80784	23.89859	7.8552
1.69677	0.1659	14.89239	24.03506	7.90006
1.69728	0.16686	14.97879	24.17449	7.94589
1.69777	0.16785	15.06737	24.31746	7.99288
1.69827	0.16873	15.14663	24.44537	8.03493
1.69878	0.16971	15.23389	24.5862	8.08122
1.69928	0.1706	15.31391	24.71535	8.12366
1.69978	0.17149	15.39452	24.84544	8.16643
1.70027	0.17257	15.49107	25.00128	8.21765
1.70077	0.1734	15.56539	25.12121	8.25707
1.70127	0.1744	15.65497	25.26578	8.30459
1.70176	0.17537	15.74249	25.40704	8.35102
1.70231	0.17625	15.82095	25.53366	8.39264
1.70281	0.17725	15.91126	25.67942	8.44054
1.7033	0.17821	15.99762	25.81881	8.48636
1.70381	0.17908	16.07528	25.94414	8.52755
1.70431	0.17996	16.15438	26.07179	8.56951
1.70481	0.1809	16.2389	26.2082	8.61435
1.70531	0.18193	16.33102	26.35687	8.66322
1.7058	0.18281	16.41017	26.48462	8.7052
1.70631	0.18374	16.49351	26.61912	8.74941
1.7068	0.1847	16.5799	26.75855	8.79524
1.7073	0.18561	16.66186	26.89082	8.83872
1.7078	0.18656	16.74648	27.02739	8.88361
1.70829	0.18749	16.83042	27.16287	8.92814
1.7088	0.18842	16.91423	27.29813	8.9726
1.70929	0.1893	16.993	27.42525	9.01438
1.70979	0.19028	17.08067	27.56676	9.06089
1.71029	0.19122	17.16473	27.70241	9.10548
1.71078	0.19215	17.24868	27.83791	9.15001
1.71129	0.19306	17.33066	27.97022	9.19351
1.71178	0.19404	17.41837	28.11177	9.24003
1.71227	0.19495	17.4997	28.24303	9.28318
1.71279	0.19586	17.58125	28.37465	9.32644
1.71328	0.19686	17.67111	28.51966	9.3741
1.71377	0.19779	17.75503	28.6551	9.41862
1.71427	0.19876	17.84198	28.79543	9.46474
1.71478	0.19962	17.91924	28.92014	9.50573
1.71529	0.20054	18.00219	29.054	9.54973
1.71579	0.20148	18.08575	29.18887	9.59406
1.71628	0.2024	18.16907	29.32334	9.63826
1.71678	0.20336	18.25467	29.46149	9.68367
1.71727	0.20433	18.34204	29.60249	9.73001
1.71775	0.20524	18.4237	29.73429	9.77334
1.71826	0.20622	18.51167	29.87626	9.82
1.71875	0.20721	18.6002	30.01915	9.86696
1.71925	0.20813	18.68301	30.15278	9.91089
1.71975	0.20912	18.77237	30.29701	9.9583
1.72024	0.21004	18.85473	30.42993	10.00198
1.72075	0.21105	18.94486	30.57539	10.0498
1.72125	0.21194	19.02481	30.70443	10.09221
1.72175	0.2128	19.10258	30.82994	10.13346
1.72224	0.21392	19.20318	30.9923	10.18683
1.72274	0.21479	19.28109	31.11804	10.22816
1.72329	0.21575	19.36717	31.25696	10.27382
1.72379	0.21685	19.46575	31.41606	10.32612
1.7243	0.21782	19.55336	31.55747	10.37259
1.7248	0.21878	19.63943	31.69637	10.41825
1.72529	0.21978	19.72919	31.84123	10.46586
1.72579	0.22077	19.81754	31.98383	10.51273
1.72629	0.22177	19.9077	32.12933	10.56056
1.72679	0.22271	19.99185	32.26515	10.6052
1.72728	0.22376	20.08636	32.41768	10.65534
1.72778	0.22468	20.16854	32.55032	10.69893
1.72829	0.22568	20.25826	32.69512	10.74653
1.72877	0.22683	20.36216	32.86279	10.80164
1.72928	0.22772	20.44201	32.99167	10.844
1.72977	0.22877	20.53631	33.14385	10.89402
1.73027	0.22986	20.63392	33.30139	10.9458
1.73077	0.23092	20.72924	33.45523	10.99637
1.73126	0.23202	20.82751	33.61384	11.0485
1.73175	0.23306	20.92075	33.76431	11.09796
1.73226	0.23419	21.02266	33.92879	11.15202
1.73275	0.2353	21.1224	34.08976	11.20493
1.73326	0.23644	21.2246	34.2547	11.25914
1.73376	0.23751	21.32033	34.40921	11.30993
1.73425	0.23861	21.41914	34.56867	11.36234
1.73474	0.2397	21.51696	34.72654	11.41423
1.73525	0.24088	21.62283	34.89742	11.4704
1.73576	0.24191	21.71576	35.04739	11.51969
1.73626	0.24305	21.81766	35.21185	11.57375
1.73676	0.24416	21.91724	35.37256	11.62657
1.73726	0.24535	22.02422	35.54522	11.68333
1.73776	0.24644	22.12213	35.70323	11.73526
1.73826	0.24758	22.22462	35.86865	11.78963
1.73876	0.24881	22.33509	36.04694	11.84823
1.73925	0.24993	22.43552	36.20903	11.90151
1.73975	0.25108	22.53845	36.37514	11.95611
1.74025	0.25232	22.65029	36.55564	12.01544
1.74076	0.25347	22.75332	36.72193	12.0701
1.74124	0.25475	22.86793	36.9069	12.13089
1.74173	0.25591	22.97238	37.07547	12.1863
1.74224	0.25708	23.07741	37.24498	12.24202
1.74273	0.25831	23.18719	37.42216	12.30025
1.74324	0.25951	23.29556	37.59705	12.35774
1.74374	0.2608	23.41095	37.78329	12.41895
1.74424	0.26203	23.52177	37.96213	12.47774
1.74475	0.26329	23.63448	38.14404	12.53753
1.74524	0.26455	23.74746	38.32638	12.59746
1.74575	0.26575	23.85565	38.50099	12.65485
1.74624	0.2671	23.97646	38.69597	12.71894
1.74674	0.26831	24.08543	38.87184	12.77675
1.74724	0.26957	24.19866	39.05458	12.83681
1.74774	0.27085	24.31309	39.23926	12.89752
1.74824	0.27213	24.42829	39.42519	12.95863
1.74874	0.27346	24.54748	39.61754	13.02185
1.74923	0.27476	24.66412	39.8058	13.08373
1.74973	0.276	24.7756	39.98571	13.14286
1.75023	0.27733	24.89499	40.1784	13.2062
1.75073	0.27859	25.00766	40.36024	13.26597
1.75121	0.28006	25.14022	40.57417	13.33629
1.75172	0.28129	25.25028	40.75181	13.39467
1.75222	0.2826	25.36767	40.94127	13.45695
1.75272	0.28392	25.48643	41.13293	13.51994
1.75323	0.28527	25.60758	41.32846	13.58421
1.75371	0.28667	25.73326	41.53129	13.65088
1.75421	0.288	25.85263	41.72394	13.7142
1.75471	0.28931	25.97012	41.91357	13.77653
1.75521	0.29062	26.08766	42.10327	13.83888
1.75571	0.29195	26.20752	42.2967	13.90246
1.75621	0.29332	26.33071	42.49553	13.96782
1.75671	0.29467	26.45117	42.68994	14.03171
1.75721	0.29602	26.57264	42.88598	14.09615
1.75771	0.29739	26.69555	43.08435	14.16135
1.75821	0.29881	26.82281	43.28974	14.22886
1.7587	0.30039	26.9647	43.51874	14.30413
1.75921	0.30174	27.08619	43.71481	14.36858
1.75971	0.30314	27.21227	43.91829	14.43546
1.76021	0.30454	27.33756	44.1205	14.50192
1.76071	0.30612	27.47899	44.34875	14.57695
1.76119	0.30754	27.60648	44.55451	14.64458
1.76169	0.30909	27.74581	44.77938	14.71849
1.7622	0.3105	27.87271	44.98418	14.78581
1.76274	0.31193	28.00091	45.19109	14.85382
1.76325	0.31337	28.1298	45.3991	14.92219
1.76375	0.31475	28.25361	45.59892	14.98787
1.76424	0.31634	28.3966	45.8297	15.06372
1.76475	0.31768	28.51742	46.0247	15.12781
1.76525	0.31933	28.66519	46.26319	15.2062
1.76575	0.32072	28.79026	46.46503	15.27255
1.76625	0.32213	28.91665	46.66901	15.33959
1.76674	0.32354	29.04266	46.87239	15.40644
1.76724	0.32506	29.17963	47.09345	15.4791
1.76774	0.32685	29.34004	47.35233	15.56419
1.76824	0.32839	29.47849	47.57578	15.63764
1.76874	0.32997	29.62035	47.80473	15.71289
1.76923	0.33151	29.75819	48.0272	15.78601
1.76973	0.33283	29.8769	48.21877	15.84898
1.77022	0.33437	30.01499	48.44165	15.92224
1.77072	0.33587	30.14961	48.65891	15.99365
1.77122	0.33745	30.2913	48.88759	16.06881
1.77172	0.33885	30.41712	49.09064	16.13556
1.77223	0.34033	30.55042	49.30579	16.20627
1.77272	0.34188	30.68949	49.53023	16.28005
1.77322	0.3434	30.82543	49.74963	16.35216
1.77371	0.34489	30.95966	49.96626	16.42336
1.77422	0.34635	31.09096	50.17816	16.49301
1.7747	0.34813	31.25088	50.43626	16.57785
1.77521	0.35004	31.42204	50.71251	16.66865
1.77572	0.35168	31.56928	50.95014	16.74675
1.77621	0.353	31.68799	51.14173	16.80973
1.77671	0.35453	31.82482	51.36255	16.88231
1.77722	0.3559	31.94825	51.56176	16.94779
1.77771	0.35731	32.07477	51.76595	17.0149
1.7782	0.35892	32.21889	51.99854	17.09135
1.77869	0.36058	32.36792	52.23908	17.17041
1.77919	0.36218	32.51193	52.47149	17.2468
1.77968	0.36378	32.6554	52.70304	17.32291
1.78019	0.36546	32.80624	52.94648	17.40293
1.78069	0.36714	32.95676	53.18941	17.48278
1.78124	0.36876	33.10252	53.42465	17.5601
1.78174	0.37053	33.26141	53.68108	17.64438
1.78225	0.37231	33.42067	53.93813	17.72887
1.78274	0.37423	33.59303	54.21629	17.8203
1.78325	0.37586	33.73937	54.45247	17.89793
1.78374	0.37757	33.89322	54.70077	17.97954
1.78424	0.37926	34.04488	54.94554	18.06
1.78474	0.38096	34.1973	55.19154	18.14086
1.78523	0.38269	34.35312	55.44302	18.22351
1.78572	0.38435	34.50164	55.68271	18.3023
1.78622	0.38667	34.71002	56.01903	18.41284
1.78673	0.38858	34.88107	56.29508	18.50358
1.78723	0.39023	35.02958	56.53476	18.58236
1.78773	0.39185	35.17464	56.76888	18.65931
1.78823	0.3937	35.34108	57.03751	18.7476
1.78872	0.39562	35.51381	57.31627	18.83923
1.78922	0.39729	35.66378	57.55831	18.91879
1.78972	0.39891	35.80863	57.79208	18.99563
